z (nm)	PRZ(pz) Gen	PRZ(pz) Emi	
7.38464	1.64785	1.64266	
22.1539	1.84328	1.82806	
36.9232	1.97703	1.9501	
51.6925	2.09684	2.05695	
66.4617	2.17908	2.12597	
81.231	2.26532	2.19805	
96.0003	2.36136	2.27875	
110.77	2.3758	2.28014	
125.539	2.44317	2.33196	
140.308	2.43671	2.31311	
155.077	2.4467	2.30987	
169.847	2.46735	2.31665	
184.616	2.48617	2.32154	
199.385	2.46902	2.29299	
214.154	2.42775	2.24227	
228.924	2.34748	2.15634	
243.693	2.29336	2.09512	
258.462	2.28427	2.0754	
273.232	2.24165	2.02551	
288.001	2.1771	1.95647	
302.77	2.12275	1.89719	
317.539	2.03694	1.81058	
332.309	1.957	1.73	
347.078	1.87818	1.65125	
361.847	1.81385	1.58596	
376.617	1.75981	1.5303	
391.386	1.65702	1.43307	
406.155	1.59584	1.37259	
420.924	1.50665	1.2888	
435.694	1.42601	1.21316	
450.463	1.37576	1.164	
465.232	1.32333	1.11354	
480.001	1.25696	1.05191	
494.771	1.15438	0.960799	
509.54	1.10041	0.910866	
524.309	1.03837	0.854807	
539.079	0.961708	0.787379	
553.848	0.929007	0.756437	
568.617	0.871798	0.705981	
583.386	0.811247	0.653351	
598.156	0.735654	0.589234	
612.925	0.670619	0.534208	
627.694	0.628919	0.498263	
642.463	0.562173	0.442941	
657.233	0.522237	0.409228	
672.002	0.462309	0.360299	
686.771	0.412636	0.319809	
701.541	0.390529	0.30103	
716.31	0.35046	0.268669	
731.079	0.319203	0.243371	
745.848	0.27847	0.211167	
760.618	0.242513	0.182876	
775.387	0.223912	0.167933	
790.156	0.204141	0.152267	
804.925	0.174839	0.129702	
819.695	0.144523	0.106629	
834.464	0.122677	0.0900161	
849.233	0.1052	0.0767638	
864.003	0.0923517	0.0670251	
878.772	0.076325	0.0550911	
893.541	0.0668051	0.0479572	
908.31	0.0565766	0.0403897	
923.08	0.0471502	0.0334784	
937.849	0.0383569	0.0270881	
952.618	0.0291151	0.0204469	
967.387	0.0249291	0.0174104	
982.157	0.0196728	0.0136666	
996.926	0.0168298	0.0116262	
1011.7	0.010749	0.00738544	
1026.46	0.00816483	0.00557923	
1041.23	0.00674181	0.00458138	
1056	0.00388503	0.00262595	
1070.77	0.00306318	0.00205896	
1085.54	0.00210464	0.00140673	
1100.31	0.00104151	0.000692475	
1115.08	0.000848287	0.000560924	
1129.85	0.000517389	0.000340237	
1144.62	0.00036887	0.000241151	
1159.39	0.00034782	0.000226332	
1174.16	1.21285e-06	7.86136e-07	
1188.93	0	0	
1203.7	0	0	
1218.47	0	0	
1233.23	0	0	
1248	0	0	
1262.77	0	0	
1277.54	0	0	
1292.31	0	0	
1307.08	0	0	
1321.85	0	0	
1336.62	0	0	
1351.39	0	0	
1366.16	0	0	
1380.93	0	0	
1395.7	0	0	
1410.47	0	0	
1425.24	0	0	
1440	0	0	
1454.77	0	0	
