z (nm)	PRZ(pz) Gen	PRZ(pz) Emi	
9.55279	1.70075	1.69403	
28.6584	1.91503	1.89468	
47.764	2.05359	2.01745	
66.8695	2.18944	2.13571	
85.9751	2.27038	2.19905	
105.081	2.35294	2.26293	
124.186	2.41432	2.30557	
143.292	2.48401	2.35536	
162.397	2.49432	2.34841	
181.503	2.49558	2.33301	
200.609	2.51424	2.33389	
219.714	2.52564	2.3279	
238.82	2.54695	2.33096	
257.925	2.53982	2.30802	
277.031	2.44705	2.20803	
296.137	2.45239	2.1972	
315.242	2.42549	2.15777	
334.348	2.40254	2.12224	
353.453	2.35162	2.0626	
372.559	2.28408	1.98921	
391.664	2.22587	1.92478	
410.77	2.1534	1.84901	
429.876	2.10231	1.79238	
448.981	2.04015	1.7271	
468.087	1.94605	1.6358	
487.192	1.87199	1.56246	
506.298	1.77279	1.46917	
525.404	1.71035	1.40743	
544.509	1.62792	1.33014	
563.615	1.55513	1.26168	
582.72	1.46449	1.17974	
601.826	1.42025	1.13601	
620.931	1.36102	1.08096	
640.037	1.29242	1.0192	
659.143	1.22782	0.961442	
678.248	1.16546	0.90615	
697.354	1.10254	0.851168	
716.459	1.02891	0.788752	
735.565	0.962719	0.732768	
754.671	0.894828	0.676296	
773.776	0.821957	0.616832	
792.882	0.760781	0.566897	
811.987	0.67494	0.499387	
831.093	0.605386	0.444734	
850.198	0.601354	0.438671	
869.304	0.546454	0.395786	
888.41	0.500153	0.359711	
907.515	0.444029	0.317084	
926.621	0.411356	0.291679	
945.726	0.368388	0.259374	
964.832	0.32552	0.227587	
983.938	0.301343	0.209163	
1003.04	0.26594	0.183294	
1022.15	0.241909	0.165557	
1041.25	0.201487	0.136927	
1060.36	0.174373	0.11766	
1079.47	0.151393	0.101439	
1098.57	0.122245	0.0813227	
1117.68	0.11012	0.0727446	
1136.78	0.0903433	0.059254	
1155.89	0.0806114	0.0524984	
1174.99	0.0651256	0.0421193	
1194.1	0.0534617	0.034326	
1213.2	0.0447172	0.0285127	
1232.31	0.0385668	0.0244148	
1251.42	0.0296954	0.0186658	
1270.52	0.0226041	0.0141121	
1289.63	0.0193121	0.0119678	
1308.73	0.014224	0.00875348	
1327.84	0.0119301	0.0072889	
1346.94	0.00851051	0.00516556	
1366.05	0.00528018	0.00318201	
1385.15	0.00302179	0.00180745	
1404.26	0.00202055	0.00120012	
1423.37	0.000882087	0.00052004	
1442.47	0.000263309	0.000154263	
1461.58	0.000453454	0.000263456	
1480.68	0.000556299	0.00032149	
1499.79	1.03587e-05	5.9446e-06	
1518.89	0	0	
1538	0	0	
1557.11	0	0	
1576.21	0	0	
1595.32	0	0	
1614.42	0	0	
1633.53	0	0	
1652.63	0	0	
1671.74	0	0	
1690.84	0	0	
1709.95	0	0	
1729.06	0	0	
1748.16	0	0	
1767.27	0	0	
1786.37	0	0	
1805.48	0	0	
1824.58	0	0	
1843.69	0	0	
1862.79	0	0	
1881.9	0	0	
